																																																						
																																																						
																																																						
																																																						
																																																						
																																																						
																																																						
																																																						
																																																						
																																																						
455	517	651	788	852																																																		
#N/A	#N/A	#N/A	#N/A	#N/A																																																		
#N/A	#N/A	#N/A	#N/A	#N/A																																																		
#N/A	#N/A	#N/A	#N/A	#N/A																																																		
#N/A	#N/A	#N/A	#N/A	#N/A																																																		
#N/A	#N/A	#N/A	#N/A	#N/A																																																		
379.35	432.67	547.91	665.73	720.77																																																		
#N/A	#N/A	#N/A	#N/A	#N/A	491	572	741	909	986																																													
#N/A	#N/A	#N/A	#N/A	#N/A	#N/A	#N/A	#N/A	#N/A	#N/A																																													
#N/A	#N/A	#N/A	#N/A	#N/A	#N/A	#N/A	#N/A	#N/A	#N/A																																													
#N/A	#N/A	#N/A	#N/A	#N/A	#N/A	#N/A	#N/A	#N/A	#N/A																																													
#N/A	#N/A	#N/A	#N/A	#N/A	#N/A	#N/A	#N/A	#N/A	#N/A																																													
#N/A	#N/A	#N/A	#N/A	#N/A	#N/A	#N/A	#N/A	#N/A	#N/A																																													
452.62	506.56	623.14	742.33	798.01	431.9	501.56	646.9	791.38	857.6																																													
#N/A	#N/A	#N/A	#N/A	#N/A	#N/A	#N/A	#N/A	#N/A	#N/A	528	631	841	1042	1133																																								
#N/A	#N/A	#N/A	#N/A	#N/A	#N/A	#N/A	#N/A	#N/A	#N/A	#N/A	#N/A	#N/A	#N/A	#N/A																																								
#N/A	#N/A	#N/A	#N/A	#N/A	#N/A	#N/A	#N/A	#N/A	#N/A	#N/A	#N/A	#N/A	#N/A	#N/A																																								
#N/A	#N/A	#N/A	#N/A	#N/A	#N/A	#N/A	#N/A	#N/A	#N/A	#N/A	#N/A	#N/A	#N/A	#N/A																																								
#N/A	#N/A	#N/A	#N/A	#N/A	#N/A	#N/A	#N/A	#N/A	#N/A	#N/A	#N/A	#N/A	#N/A	#N/A																																								
#N/A	#N/A	#N/A	#N/A	#N/A	#N/A	#N/A	#N/A	#N/A	#N/A	#N/A	#N/A	#N/A	#N/A	#N/A																																								
546.13	601.93	722.53	845.83	903.43	517.38	587.85	734.88	881.04	948.03	485.31	573.89	754.49	927.35	1005.61																																								
556.9252643	613.7880117	736.7834875	862.6794322	921.5441916	#N/A	#N/A	#N/A	#N/A	#N/A	#N/A	#N/A	#N/A	#N/A	#N/A	568	697	953	1189	1295																																			
567.9345145	625.8802845	751.3189468	879.8654408	940.0225702	#N/A	#N/A	#N/A	#N/A	#N/A	#N/A	#N/A	#N/A	#N/A	#N/A	#N/A	#N/A	#N/A	#N/A	#N/A																																			
579.1645014	638.2142115	766.1452753	897.3986372	958.8766125	#N/A	#N/A	#N/A	#N/A	#N/A	#N/A	#N/A	#N/A	#N/A	#N/A	#N/A	#N/A	#N/A	#N/A	#N/A																																			
590.6220217	650.7972341	781.2714296	915.28971	978.1178833	#N/A	#N/A	#N/A	#N/A	#N/A	#N/A	#N/A	#N/A	#N/A	#N/A	#N/A	#N/A	#N/A	#N/A	#N/A																																			
602.3139153	663.6368394	796.7064221	933.5494214	997.7580322	#N/A	#N/A	#N/A	#N/A	#N/A	#N/A	#N/A	#N/A	#N/A	#N/A	#N/A	#N/A	#N/A	#N/A	#N/A																																			
614.2470099	676.7404993	812.4592478	952.1885212	1017.808701	#N/A	#N/A	#N/A	#N/A	#N/A	#N/A	#N/A	#N/A	#N/A	#N/A	#N/A	#N/A	#N/A	#N/A	#N/A																																			
626.4281207	690.1156696	828.5388834	971.2177459	1038.281524	624.83	697.73	849.83	1001.03	1070.33	583.01	672.62	855.32	1030.19	1109.36	541.3	652.24	872.4	1075.36	1166.52																																			
638.864106	703.7698518	844.9543615	990.6479053	1059.188218	637.2507434	711.4581047	866.4424338	1020.743252	1091.546795	#N/A	#N/A	#N/A	#N/A	#N/A	#N/A	#N/A	#N/A	#N/A	#N/A	617	775	1079	1354	1475																														
651.5618697	717.7105958	861.7147737	1010.489887	1080.540591	649.9332531	725.4729015	883.3998039	1040.868515	1113.209616	#N/A	#N/A	#N/A	#N/A	#N/A	#N/A	#N/A	#N/A	#N/A	#N/A	#N/A	#N/A	#N/A	#N/A	#N/A																														
664.5283621	731.9455004	878.829271	1030.754656	1102.350539	662.8844824	739.7819774	900.7112172	1061.416694	1135.330296	#N/A	#N/A	#N/A	#N/A	#N/A	#N/A	#N/A	#N/A	#N/A	#N/A	#N/A	#N/A	#N/A	#N/A	#N/A																														
677.7705795	746.4822131	896.3070645	1051.453256	1124.630049	676.1114314	754.3929654	918.3858327	1082.398763	1157.92075	#N/A	#N/A	#N/A	#N/A	#N/A	#N/A	#N/A	#N/A	#N/A	#N/A	#N/A	#N/A	#N/A	#N/A	#N/A																														
691.2955655	761.3284316	914.1574258	1072.596811	1147.391196	689.621148	769.3135454	936.4328616	1103.825764	1180.992968	#N/A	#N/A	#N/A	#N/A	#N/A	#N/A	#N/A	#N/A	#N/A	#N/A	#N/A	#N/A	#N/A	#N/A	#N/A																														
705.1104261	776.4919201	932.3897081	1094.196547	1170.646176	703.420743	784.5514618	954.861589	1125.708832	1204.559049	#N/A	#N/A	#N/A	#N/A	#N/A	#N/A	#N/A	#N/A	#N/A	#N/A	#N/A	#N/A	#N/A	#N/A	#N/A																														
719.2223301	791.9805102	951.0133458	1116.263797	1194.407302	717.5173908	800.1145234	973.6813737	1148.059195	1228.631197	704.43	797.13	986.13	1167.03	1248.93	651.25	763.48	986.2	1191.52	1283.74	605.03	740.91	1002.35	1238.85	1342.91																														
733.6384945	807.8020842	970.0378358	1138.809972	1218.686977	731.9183145	816.0105869	992.901628	1170.88815	1253.221695	718.7147879	812.9976062	1005.459517	1190.021319	1273.701559	#N/A	#N/A	#N/A	#N/A	#N/A	#N/A	#N/A	#N/A	#N/A	#N/A	682	869	1223	1538	1677																									
748.3661838	823.9645747	989.4727361	1161.846566	1243.497701	746.6307852	832.2475563	1012.531817	1194.207066	1278.342906	733.3113618	829.206075	1025.198833	1213.502176	1299.003613	#N/A	#N/A	#N/A	#N/A	#N/A	#N/A	#N/A	#N/A	#N/A	#N/A	#N/A	#N/A	#N/A	#N/A	#N/A																									
763.4127102	840.4759649	1009.327666	1185.385152	1268.852063	761.6621225	848.8333832	1032.581459	1218.027375	1304.007276	748.2271012	845.7633681	1045.357416	1237.483919	1324.84852	#N/A	#N/A	#N/A	#N/A	#N/A	#N/A	#N/A	#N/A	#N/A	#N/A	#N/A	#N/A	#N/A	#N/A	#N/A																									
778.7854337	857.3442883	1029.612308	1209.437388	1294.76275	777.0196946	865.7760671	1053.060126	1242.360584	1330.227329	763.4694391	862.6774959	1065.944782	1261.977962	1351.248712	#N/A	#N/A	#N/A	#N/A	#N/A	#N/A	#N/A	#N/A	#N/A	#N/A	#N/A	#N/A	#N/A	#N/A	#N/A																									
794.4917625	874.5776297	1050.336405	1234.01501	1321.242537	792.7109182	883.083655	1073.977443	1267.218267	1357.015669	779.0458624	879.9565174	1086.970497	1286.995781	1378.216694	#N/A	#N/A	#N/A	#N/A	#N/A	#N/A	#N/A	#N/A	#N/A	#N/A	#N/A	#N/A	#N/A	#N/A	#N/A																									
810.5391489	892.1841196	1071.509757	1259.12983	1348.304292	808.7432551	900.7642372	1095.343082	1292.61206	1384.384975	794.9639082	897.6085361	1108.444171	1312.548904	1405.765038	#N/A	#N/A	#N/A	#N/A	#N/A	#N/A	#N/A	#N/A	#N/A	#N/A	#N/A	#N/A	#N/A	#N/A	#N/A																									
826.9350893	910.1719357	1093.142222	1284.793737	1375.960967	825.1242115	918.8259477	1117.166763	1318.553663	1412.348	811.2311635	915.6417001	1130.375454	1338.64892	1433.90638	786.73	902.83	1133.23	1345.63	1441.03	727.32	864.78	1129.26	1368.51	1473.78	682.52	843.34	1147.78	1418.68	1538.22																									
843.6871286	928.5493066	1115.243719	1311.018701	1404.225609	841.8613433	937.2769686	1139.458262	1345.054847	1440.917579	827.8552701	934.0642068	1152.774049	1365.307475	1462.653432	803.1408571	921.1448182	1155.657119	1372.340479	1469.837263	#N/A	#N/A	#N/A	#N/A	#N/A	#N/A	#N/A	#N/A	#N/A	#N/A	774	987	1388	1746	1903																				
860.802861	947.3245127	1137.824231	1337.816778	1433.111364	858.9622559	956.1255307	1162.227407	1372.127453	1470.106627	844.8439244	952.8843033	1175.649705	1392.536283	1492.018978	819.9172125	939.8577358	1178.561392	1399.620715	1499.26278	#N/A	#N/A	#N/A	#N/A	#N/A	#N/A	#N/A	#N/A	#N/A	#N/A	#N/A	#N/A	#N/A	#N/A	#N/A																				
878.2899294	966.5058863	1160.893806	1365.200105	1462.63147	876.4346043	975.3799135	1185.48408	1399.783392	1499.928144	862.2048785	972.1102866	1199.012223	1420.347118	1522.015878	837.0669803	958.9771309	1201.952608	1427.482434	1529.319369	#N/A	#N/A	#N/A	#N/A	#N/A	#N/A	#N/A	#N/A	#N/A	#N/A	#N/A	#N/A	#N/A	#N/A	#N/A																				
896.1560266	986.1018121	1184.462552	1393.180904	1492.799264	894.2860938	995.0484458	1209.238219	1428.034648	1530.395212	879.9459397	991.7505038	1222.871454	1448.751819	1552.657066	854.5981395	978.5114365	1225.840608	1455.937423	1560.019919	#N/A	#N/A	#N/A	#N/A	#N/A	#N/A	#N/A	#N/A	#N/A	#N/A	#N/A	#N/A	#N/A	#N/A	#N/A																				
914.4085135	1006.120308	1208.540141	1421.770888	1523.627546	912.5241	1015.139082	1233.499303	1456.892667	1561.520345	898.0745969	1011.812931	1247.236776	1477.761674	1583.954893	872.5183709	998.4687245	1250.234756	1484.996911	1591.376729	#N/A	#N/A	#N/A	#N/A	#N/A	#N/A	#N/A	#N/A	#N/A	#N/A	#N/A	#N/A	#N/A	#N/A	#N/A																				
933.04602	1026.559782	1233.124703	1450.968201	1555.114576	931.1472852	1035.650081	1258.265024	1486.35498	1593.301146	916.5897685	1032.295879	1272.105651	1507.373847	1615.906575	890.8270365	1018.847534	1275.13247	1514.657933	1623.386892	#N/A	#N/A	#N/A	#N/A	#N/A	#N/A	#N/A	#N/A	#N/A	#N/A	#N/A	#N/A	#N/A	#N/A	#N/A																				
952.0583636	1047.408949	1258.202721	1480.757277	1587.24392	950.1455171	1056.569921	1283.521196	1516.405085	1625.720169	935.4817128	1053.187912	1297.463531	1537.571276	1648.494074	909.5150772	1039.636779	1300.519132	1544.903231	1656.032177	877.13	1019.33	1292.93	1540.43	1649.33	817.31	980	1287.98	1562.03	1682.96	783.23	966.41	1311.27	1619.15	1754.17																				
971.4348958	1068.656016	1283.760066	1511.12182	1619.99835	969.5081978	1077.886572	1309.253022	1547.025745	1658.759178	954.7402214	1074.477085	1323.295261	1568.336168	1681.69856	928.5729669	1060.824867	1326.379515	1575.714817	1689.293561	895.92648	1040.370088	1318.736147	1571.218378	1682.54279	#N/A	#N/A	#N/A	#N/A	#N/A	#N/A	#N/A	#N/A	#N/A	#N/A	901	1133	1578	1980	2157															
991.1648829	1090.289094	1309.782497	1542.045386	1653.360474	989.2246425	1099.587918	1335.445607	1578.1996	1692.39979	974.3549921	1096.151364	1349.585593	1599.650617	1715.50107	947.9910741	1082.400107	1352.698303	1607.074593	1723.151892	915.0879977	1061.800651	1345.001867	1602.555988	1716.353563	#N/A	#N/A	#N/A	#N/A	#N/A	#N/A	#N/A	#N/A	#N/A	#N/A	#N/A	#N/A	#N/A	#N/A	#N/A															
1011.237505	1112.296208	1336.255662	1573.511391	1687.312737	1009.284079	1121.661756	1362.083957	1609.909163	1726.623478	994.3156283	1118.198628	1376.319189	1631.4966	1749.882507	967.7596612	1104.350716	1379.460089	1638.964349	1757.587888	934.6056473	1083.61042	1371.711941	1634.42474	1750.743205	#N/A	#N/A	#N/A	#N/A	#N/A	#N/A	#N/A	#N/A	#N/A	#N/A	#N/A	#N/A	#N/A	#N/A	#N/A															
1031.641854	1134.665287	1363.165096	1605.503104	1721.837422	1029.675649	1144.095794	1389.152981	1642.136819	1761.41157	1014.611639	1140.606663	1403.48062	1663.855978	1784.823638	987.8688844	1126.664813	1406.649376	1671.365763	1792.582136	954.4704029	1105.788021	1398.851055	1666.80643	1785.692466	#N/A	#N/A	#N/A	#N/A	#N/A	#N/A	#N/A	#N/A	#N/A	#N/A	#N/A	#N/A	#N/A	#N/A	#N/A															
1052.366938	1157.384169	1390.496224	1638.003649	1756.916643	1050.388404	1166.877652	1416.637486	1674.864827	1796.745245	1035.232436	1163.36317	1431.054362	1696.710497	1820.305099	1008.308792	1149.330421	1434.250576	1704.260403	1828.115093	974.6731176	1128.321976	1426.403799	1699.682739	1821.181962	#N/A	#N/A	#N/A	#N/A	#N/A	#N/A	#N/A	#N/A	#N/A	#N/A	#N/A	#N/A	#N/A	#N/A	#N/A															
1073.401674	1180.440597	1418.234353	1670.996003	1792.532349	1071.411308	1189.994862	1444.52218	1708.075316	1832.605538	1056.167339	1186.455757	1459.024802	1730.041786	1856.307387	1029.069325	1172.335465	1462.248009	1737.629721	1864.167084	995.2045221	1151.200695	1454.354671	1733.03523	1857.192173	#N/A	#N/A	#N/A	#N/A	#N/A	#N/A	#N/A	#N/A	#N/A	#N/A	#N/A	#N/A	#N/A	#N/A	#N/A															
1094.734893	1203.822224	1446.364679	1704.462995	1828.666322	1092.733237	1213.434868	1472.791671	1741.750286	1868.973332	1077.405566	1209.871941	1487.376231	1763.831356	1892.810864	1050.140313	1195.667775	1490.625904	1771.455057	1900.718299	1016.055224	1174.412484	1482.688069	1766.845353	1893.703443	981.93	1150.23	1468.83	1752.33	1877.43	930.79	1116.1	1464.97	1776.43	1913.02	914.04	1113.56	1496.26	1841.98	1994.2															
1116.355336	1227.516605	1474.872282	1738.387307	1865.300176	1114.342974	1237.185023	1501.430466	1775.871609	1905.829365	1098.936242	1233.59915	1516.092848	1798.060598	1929.795754	1071.51148	1219.315081	1519.368398	1805.717639	1937.748798	1037.215708	1197.945539	1511.388298	1801.094439	1930.695982	1002.858665	1173.618223	1497.457858	1786.493982	1914.341997	#N/A	#N/A	#N/A	#N/A	#N/A	#N/A	#N/A	#N/A	#N/A	#N/A	1065	1309	1790	2235	2434										
1138.251658	1251.511203	1503.742128	1772.751472	1902.415355	1136.229218	1261.23259	1530.42297	1810.421026	1943.154223	1120.748392	1257.624719	1545.158758	1832.71079	1967.242145	1093.172438	1243.265016	1548.459536	1840.398579	1975.238506	1058.676333	1221.787949	1540.439565	1835.763704	1968.149859	1024.09744	1197.323055	1526.441029	1821.08227	1951.720607	#N/A	#N/A	#N/A	#N/A	#N/A	#N/A	#N/A	#N/A	#N/A	#N/A	#N/A	#N/A	#N/A	#N/A	#N/A										
1160.412423	1275.793386	1532.959069	1807.537873	1939.993133	1158.380572	1285.564743	1559.753488	1845.380147	1980.928344	1142.830945	1281.935892	1574.557974	1867.763086	2005.129989	1115.112686	1267.505113	1577.883271	1875.478876	2013.167215	1080.427332	1245.927692	1569.825982	1870.834247	2006.04501	1045.637304	1221.33298	1555.763906	1856.076249	1989.546102	#N/A	#N/A	#N/A	#N/A	#N/A	#N/A	#N/A	#N/A	#N/A	#N/A	#N/A	#N/A	#N/A	#N/A	#N/A										
1182.826105	1300.350426	1562.507838	1842.728744	1978.014616	1180.785553	1310.168568	1589.406223	1880.730454	2019.132015	1165.17273	1306.519821	1604.274413	1903.198525	2043.439095	1137.321617	1292.022807	1607.623463	1910.939414	2051.514584	1102.458813	1270.352637	1599.531564	1906.287049	2044.361229	1067.469095	1245.636363	1585.410775	1891.457181	2027.798605	#N/A	#N/A	#N/A	#N/A	#N/A	#N/A	#N/A	#N/A	#N/A	#N/A	#N/A	#N/A	#N/A	#N/A	#N/A										
1205.481089	1325.169502	1592.373053	1878.306168	2016.460735	1203.432584	1335.031056	1619.365276	1916.453294	2057.745372	1187.76248	1331.363567	1634.291898	1938.998026	2082.149138	1159.788506	1316.805433	1637.663878	1946.760963	2090.260134	1124.760755	1295.050542	1629.540226	1942.102973	2083.078176	1089.583509	1270.221444	1615.36582	1927.206201	2066.458094	#N/A	#N/A	#N/A	#N/A	#N/A	#N/A	#N/A	#N/A	#N/A	#N/A	#N/A	#N/A	#N/A	#N/A	#N/A										
1228.365671	1350.237694	1622.539217	1914.252075	2055.31225	1226.309999	1360.139109	1649.614645	1952.529884	2096.748397	1210.588824	1356.454096	1664.594159	1975.142386	2121.239652	1182.50252	1341.840227	1667.988191	1982.924175	2129.383255	1147.323009	1320.009055	1659.83579	1978.262763	2122.175368	1111.971101	1295.076345	1645.613118	1963.304322	2105.504397	#N/A	#N/A	#N/A	#N/A	#N/A	#N/A	#N/A	#N/A	#N/A	#N/A	#N/A	#N/A	#N/A	#N/A	#N/A										
1251.468053	1375.541988	1652.990713	1950.548245	2094.549749	1249.406039	1385.47954	1680.138226	1988.94131	2136.120924	1233.640294	1381.778283	1695.164829	2011.612285	2160.690031	1205.452709	1367.114322	1698.579981	2019.409589	2168.863198	1170.135297	1345.21571	1690.401977	2014.747047	2161.632184	1134.622281	1320.189059	1676.136642	1999.732426	2144.917197	1111.03	1302.73	1663.63	1985.83	2127.13	1074.72	1276.56	1663.71	2013.45	2167.44	1076.67	1286.51	1700.17	2082.87	2254.01										
1274.776348	1401.069272	1683.711807	1987.176304	2134.153642	1272.708852	1411.039066	1710.91981	2025.668521	2175.84263	1256.905322	1407.322907	1725.987447	2048.38828	2200.479527	1228.628012	1392.614752	1729.422736	2056.197628	2208.679078	1193.187211	1370.657933	1721.222411	2051.53633	2201.427865	1157.527314	1345.54746	1706.920259	2036.471272	2184.676024	1133.833713	1328.035621	1694.376792	2022.535872	2166.831864	#N/A	#N/A	#N/A	#N/A	#N/A	#N/A	#N/A	#N/A	#N/A	#N/A	1259	1509	2018	2503	2723					
1298.278579	1426.806336	1714.686648	2024.117722	2174.104168	1296.206496	1436.804314	1741.943087	2062.692336	2215.893039	1280.372237	1433.074656	1757.045455	2085.450807	2240.587254	1252.01725	1418.32845	1760.499845	2093.268595	2248.809875	1216.46821	1396.323032	1752.280616	2088.611001	2241.541508	1180.676319	1371.139293	1737.947727	2073.501489	2224.76026	1156.891448	1353.582398	1725.372651	2059.539203	2206.866481	#N/A	#N/A	#N/A	#N/A	#N/A	#N/A	#N/A	#N/A	#N/A	#N/A	#N/A	#N/A	#N/A	#N/A	#N/A					
1321.962673	1452.739876	1745.899262	2061.353817	2214.381386	1319.886932	1462.761819	1773.19164	2099.993438	2256.25152	1304.029268	1459.020121	1788.322201	2122.780182	2280.992182	1275.609132	1444.242246	1791.794608	2130.60268	2289.23443	1239.967622	1422.198206	1783.560018	2125.951325	2281.95207	1204.059265	1396.95218	1769.202701	2110.803581	2265.149137	1180.19362	1379.358258	1756.601431	2096.820724	2247.213373	#N/A	#N/A	#N/A	#N/A	#N/A	#N/A	#N/A	#N/A	#N/A	#N/A	#N/A	#N/A	#N/A	#N/A	#N/A					
1345.816468	1478.856484	1777.333559	2098.86575	2254.96518	1343.738032	1488.898022	1804.64895	2137.552375	2296.897288	1327.864541	1485.145799	1819.800934	2160.356597	2321.673139	1299.392246	1470.342866	1823.290226	2168.179952	2329.931446	1263.674642	1448.270537	1815.043944	2163.53745	2322.638367	1227.665976	1422.973614	1800.668728	2148.35792	2305.821734	1203.730483	1405.350992	1788.046871	2134.361026	2287.851897	#N/A	#N/A	#N/A	#N/A	#N/A	#N/A	#N/A	#N/A	#N/A	#N/A	#N/A	#N/A	#N/A	#N/A	#N/A					
1369.827707	1505.142659	1808.973328	2136.634527	2295.835254	1367.74757	1515.19927	1836.29839	2175.34956	2337.809401	1351.86608	1511.438093	1851.464808	2198.160122	2362.608812	1323.355067	1496.616937	1854.969806	2205.980363	2370.879486	1287.57833	1474.526993	1846.71562	2201.349401	2363.57907	1251.486123	1449.190962	1832.329244	2186.144752	2346.756979	1227.492132	1431.548258	1819.692597	2172.140564	2328.761251	#N/A	#N/A	#N/A	#N/A	#N/A	#N/A	#N/A	#N/A	#N/A	#N/A	#N/A	#N/A	#N/A	#N/A	#N/A					
1393.984041	1531.584799	1840.802235	2174.640995	2336.971135	1391.903227	1541.651817	1868.123232	2213.365271	2378.966758	1376.021804	1537.883309	1883.29688	2236.170705	2403.777741	1347.48595	1523.050978	1886.81636	2243.983749	2412.056978	1311.66761	1500.954427	1878.558173	2239.367082	2404.752709	1275.509225	1475.591463	1864.167582	2224.144193	2387.933647	1251.468501	1457.937571	1851.52212	2210.139657	2369.920471	#N/A	#N/A	#N/A	#N/A	#N/A	#N/A	#N/A	#N/A	#N/A	#N/A	#N/A	#N/A	#N/A	#N/A	#N/A					
1418.273026	1558.1692	1872.803829	2212.865844	2378.352168	1416.192589	1568.241824	1900.106637	2251.579647	2420.348105	1400.319531	1564.467658	1915.280108	2274.368168	2445.158325	1371.773133	1549.631408	1918.812803	2282.169824	2453.442206	1335.93127	1527.539577	1910.554628	2277.570274	2446.13767	1299.72465	1502.162227	1896.166962	2262.336229	2429.330361	1275.649358	1484.506314	1883.518835	2248.338486	2411.308431	1271.63	1480.43	1880.93	2242.73	2402.03	1250.84	1463.12	1881.59	2268.74	2441.87	1265.1	1480.1	1917.84	2334.94	2524.14					
1442.682124	1584.882061	1904.961533	2251.289606	2419.957517	1440.603148	1594.955354	1932.231665	2289.972691	2461.932024	1424.746973	1591.177252	1947.397354	2312.732212	2486.728817	1396.204733	1576.344538	1950.941954	2320.518184	2495.013315	1360.357963	1554.269061	1942.687912	2315.938637	2487.712194	1324.12161	1528.890233	1928.310498	2300.700714	2470.925589	1300.024307	1511.241728	1915.666022	2286.717093	2452.90384	1296.000144	1507.161659	1913.083763	2281.120944	2443.632434	#N/A	#N/A	#N/A	#N/A	#N/A	#N/A	#N/A	#N/A	#N/A	#N/A	1475	1726	2255	2774	3014
1467.198704	1611.709481	1937.258649	2289.892653	2461.766164	1465.122297	1621.778379	1964.481265	2328.524269	2503.696943	1449.291738	1617.998109	1979.631381	2351.24241	2528.467325	1420.768748	1603.176578	1983.186535	2359.008305	2536.748311	1384.9362	1581.129384	1974.940847	2354.451706	2529.454378	1348.689163	1555.762331	1960.581194	2339.217373	2512.697645	1324.582787	1538.130913	1947.946844	2325.255381	2494.685243	1320.555963	1534.04915	1945.37269	2319.674819	2485.425851	#N/A	#N/A	#N/A	#N/A	#N/A	#N/A	#N/A	#N/A	#N/A	#N/A	#N/A	#N/A	#N/A	#N/A	#N/A
1491.810037	1638.637456	1969.678357	2328.655195	2503.75691	1489.737337	1648.696773	1996.838281	2367.214108	2545.621128	1473.941326	1644.916149	2011.964852	2389.878214	2570.351811	1445.453056	1630.113628	2015.529171	2397.619544	2578.625055	1409.654355	1608.10693	2007.296155	2393.088896	2571.342173	1373.416208	1582.76524	1992.961942	2377.865798	2554.624685	1349.314066	1565.16083	1980.344347	2363.933114	2536.631021	1345.28679	1561.079488	1977.779859	2358.371459	2527.388747	#N/A	#N/A	#N/A	#N/A	#N/A	#N/A	#N/A	#N/A	#N/A	#N/A	#N/A	#N/A	#N/A	#N/A	#N/A
1516.503302	1665.651883	2002.203713	2367.557284	2545.908368	1514.435468	1675.696315	2029.28545	2406.021796	2587.682684	1498.683136	1671.917194	2044.380335	2428.618947	2612.36009	1470.245411	1657.141686	2047.952391	2436.331134	2620.62127	1434.500661	1635.187966	2039.736457	2431.829495	2613.353383	1398.291489	1609.885545	2025.435528	2416.625451	2596.684714	1374.207244	1592.318298	2012.841461	2402.729915	2578.719387	1370.181786	1588.239546	2010.288231	2397.190554	2569.49945	#N/A	#N/A	#N/A	#N/A	#N/A	#N/A	#N/A	#N/A	#N/A	#N/A	#N/A	#N/A	#N/A	#N/A	#N/A
1541.265578	1692.738554	2034.817648	2406.578808	2588.198969	1539.203796	1702.762687	2061.805401	2444.926782	2629.859556	1523.504455	1698.986968	2076.860296	2467.443809	2654.469831	1495.133448	1684.246642	2080.438626	2475.122192	2662.714534	1459.463209	1662.35864	2072.244271	2470.652668	2655.465666	1423.303586	1637.1097	2057.984623	2455.475659	2638.855576	1399.251249	1619.589993	2045.420997	2441.625267	2620.928391	1395.229937	1615.516051	2042.880646	2436.111651	2611.736114	#N/A	#N/A	#N/A	#N/A	#N/A	#N/A	#N/A	#N/A	#N/A	#N/A	#N/A	#N/A	#N/A	#N/A	#N/A
1566.083852	1719.883163	2067.50297	2445.699493	2630.606957	1564.029327	1729.881477	2094.380653	2483.908373	2672.129527	1548.392468	1726.111095	2109.387101	2506.331872	2696.658554	1520.104677	1711.414279	2112.970207	2513.971709	2704.882282	1484.52995	1689.604979	2104.802012	2509.537456	2697.656535	1448.440921	1664.424023	2090.591789	2494.395619	2681.114959	1424.434834	1646.962447	2078.065648	2480.598511	2663.235912	1420.420054	1642.895584	2075.539826	2475.11415	2654.07672	#N/A	#N/A	#N/A	#N/A	#N/A	#N/A	#N/A	#N/A	#N/A	#N/A	#N/A	#N/A	#N/A	#N/A	#N/A
1590.94501	1747.071299	2100.242359	2484.898901	2673.11039	1588.898972	1757.038173	2126.993619	2522.945739	2714.470216	1573.334248	1753.275103	2141.943017	2545.262081	2738.903633	1545.146484	1738.630272	2145.529368	2552.858557	2747.101806	1509.688688	1716.912891	2137.391991	2548.462773	2739.903351	1473.691754	1691.814701	2123.239477	2533.36439	2723.440393	1449.746582	1674.422047	2110.757988	2519.628847	2705.619663	1445.740774	1670.364581	2108.24837	2514.177308	2696.499078	1465.53	1685.13	2118.03	2518.53	2697.63	1453.06	1670.56	2113.39	2535.34	2726.74	1472.45	1688.31	2143.25	2589.59	2795.99
1615.835843	1774.288447	2133.018374	2524.156431	2715.687136	1613.79954	1784.218168	2159.626601	2562.017905	2756.859079	1598.316763	1780.464419	2174.510213	2584.213254	2781.182291	1570.246133	1765.88019	2178.098246	2591.761485	2789.350254	1534.927086	1744.268162	2169.996418	2587.407409	2782.18333	1499.04418	1719.267782	2155.910024	2572.360901	2765.809251	1475.174894	1701.955037	2143.480474	2558.695331	2748.057187	1471.180552	1697.909327	2140.988759	2553.280234	2738.98082	1490.911856	1712.617139	2150.720446	2557.603143	2740.108207	#N/A	#N/A	#N/A	#N/A	#N/A	#N/A	#N/A	#N/A	#N/A	#N/A
1640.743044	1801.519992	2165.813442	2563.451314	2758.314876	1638.717742	1811.406754	2192.261792	2601.103756	2799.27341	1623.326872	1807.664369	2207.070753	2623.164082	2823.471602	1595.39076	1793.149492	2210.658877	2630.659118	2831.604629	1560.232658	1771.656457	2202.597396	2626.350027	2824.473536	1524.486129	1746.769181	2188.585657	2611.363944	2808.198743	1500.707999	1729.54751	2176.215439	2597.776877	2790.525858	1496.727666	1725.515962	2173.743349	2592.40189	2781.499405	1516.388523	1740.156975	2183.419002	2596.692066	2782.62261	#N/A	#N/A	#N/A	#N/A	#N/A	#N/A	#N/A	#N/A	#N/A	#N/A
1665.653207	1828.75121	2198.609867	2602.762619	2800.971099	1663.640192	1838.589129	2224.881275	2640.182034	2841.690334	1648.351322	1834.86018	2239.606604	2662.093128	2865.74849	1620.567376	1820.423529	2243.193197	2669.52996	2873.841788	1585.592773	1799.063319	2235.176926	2665.269163	2866.750887	1550.005364	1774.304673	2221.248489	2650.352177	2850.585922	1526.33394	1757.185416	2208.945098	2636.852254	2833.002879	1522.37021	1753.170473	2206.494376	2631.521091	2824.032116	1541.947861	1767.735351	2216.107824	2635.775547	2825.150481	#N/A	#N/A	#N/A	#N/A	#N/A	#N/A	#N/A	#N/A	#N/A	#N/A
1690.552829	1855.967277	2231.389825	2642.069244	2843.633105	1688.553401	1865.750389	2257.467022	2679.231339	2884.086815	1673.376754	1862.03698	2272.099629	2700.978823	2907.989729	1645.762866	1847.687541	2275.683044	2708.352389	2916.038443	1610.994654	1826.474166	2267.716904	2704.143228	2908.992146	1575.589482	1801.859897	2253.880518	2689.304122	2892.947678	1552.040584	1784.854554	2241.651547	2675.900088	2875.465282	1548.096096	1780.858699	2239.223954	2670.616505	2866.556057	1567.577556	1795.337967	2248.768951	2674.83222	2867.668917	#N/A	#N/A	#N/A	#N/A	#N/A	#N/A	#N/A	#N/A	#N/A	#N/A
1715.428307	1883.153263	2264.135363	2681.349922	2886.278001	1713.443782	1892.875532	2290.000897	2718.230125	2926.439647	1698.389695	1889.179792	2304.531592	2739.799473	2950.171941	1670.963987	1874.92666	2308.110155	2747.104661	2958.171159	1636.425373	1853.874294	2300.19912	2742.950502	2951.17393	1601.225909	1829.420353	2286.46363	2728.198163	2935.260741	1577.815613	1812.540572	2274.316757	2714.89886	2917.889926	1573.893051	1808.566325	2271.914072	2709.666649	2909.048156	1593.265119	1822.950379	2281.384304	2713.840572	2910.154835	#N/A	#N/A	#N/A	#N/A	#N/A	#N/A	#N/A	#N/A	#N/A	#N/A
1740.265937	1910.294131	2296.8284	2720.583218	2928.882701	1738.297644	1919.949458	2322.464648	2757.156704	2968.725459	1723.376564	1916.273542	2336.884152	2778.533252	2992.271595	1696.157367	1902.125907	2340.456168	2785.764906	3000.216354	1661.871851	1881.248876	2332.60526	2781.669141	2993.272701	1626.9019	1856.971402	2318.979598	2767.01255	2977.501678	1603.646523	1840.228973	2306.922579	2753.826904	2960.253497	1599.748612	1836.278884	2304.546597	2748.649893	2951.485161	1618.997888	1850.558	2313.935688	2752.778946	2952.584976	#N/A	#N/A	#N/A	#N/A	#N/A	#N/A	#N/A	#N/A	#N/A	#N/A
1765.051916	1937.374739	2329.450725	2759.747525	2971.423924	1763.101197	1946.956965	2354.839917	2795.989242	3010.92071	1748.323666	1943.30305	2369.138867	2817.158203	3034.265009	1721.329506	1929.27019	2372.702618	2824.311129	3042.150298	1687.320863	1908.582958	2364.916903	2820.27717	3035.26477	1652.604538	1884.498264	2351.410077	2805.725394	3019.646893	1629.520626	1867.905102	2339.450742	2792.662407	3002.532508	1625.650132	1863.981757	2337.10327	2787.544454	2993.843641	1644.76302	1878.146098	2346.404789	2791.625536	2994.935902	1686.43	1911.43	2369.53	2806.03	3004.03	1674.42	1892.79	2353.02	2804.55	3013.35
1789.772343	1964.379839	2361.983997	2798.821068	3013.878196	1787.840551	1973.882751	2387.108229	2834.70576	3053.001692	1773.217195	1970.253035	2401.277194	2855.652241	3076.128348	1746.466773	1956.344309	2404.830941	2862.72121	3083.949113	1712.759026	1935.861459	2397.115523	2858.752484	3077.126295	1678.320734	1911.986018	2383.736609	2844.314667	3061.672625	1655.425043	1895.554156	2371.882852	2831.383412	3044.703298	1651.584769	1891.660167	2369.565711	2826.328401	3036.099984	1670.547496	1905.699797	2378.773177	2830.358389	3037.183995	1711.867769	1938.677531	2401.673209	2844.630914	3046.192498	#N/A	#N/A	#N/A	#N/A	#N/A
1814.413211	1991.294076	2394.409748	2837.7819	3056.221846	1812.501708	2000.711415	2419.250998	2873.284132	3094.944527	1798.043234	1997.108115	2433.280484	2893.993147	3117.837622	1771.555407	1983.332949	2436.82247	2900.972903	3125.588773	1738.172808	1963.069176	2429.182487	2897.072851	3118.833281	1704.037222	1939.419601	2415.94062	2882.758205	3103.554952	1681.346709	1923.161177	2404.20039	2869.967813	3086.742029	1677.539492	1919.299183	2401.915409	2864.979649	3078.230397	1696.338117	1933.204071	2411.022299	2868.955403	3079.305455	1737.281556	1965.852159	2433.681347	2883.086279	3088.222061	#N/A	#N/A	#N/A	#N/A	#N/A
1838.960416	2018.101988	2426.709374	2876.607904	3098.431004	1837.070574	2027.427454	2451.249527	2911.702086	3136.725167	1822.787749	2023.852802	2465.129985	2932.158572	3159.368686	1796.581516	2010.220684	2468.658437	2939.043837	3167.0451	1763.548522	1990.190776	2461.099053	2935.215909	3160.361579	1729.740559	1966.783807	2448.00342	2921.033704	3145.269783	1707.272364	1950.711054	2436.384714	2908.393355	3128.624687	1703.501073	1946.883717	2434.133732	2903.475963	3120.210905	1722.121501	1960.643751	2443.133487	2907.394327	3121.276301	1762.657681	1992.93854	2465.535661	2921.373786	3130.09467	#N/A	#N/A	#N/A	#N/A	#N/A
1863.39975	2044.788006	2458.864142	2915.276787	3140.481605	1861.532946	2054.015262	2483.085004	2949.937203	3178.319393	1847.436595	2050.471506	2496.806844	2970.126035	3200.697242	1821.531075	2036.991974	2500.319973	2976.911511	3208.29377	1788.872324	2017.210799	2492.846376	2973.159164	3201.686884	1755.417126	1994.063286	2479.906203	2959.118719	3186.792865	1733.188555	1978.188517	2468.417059	2946.637635	3170.327082	1729.456091	1974.398523	2466.201921	2941.794956	3162.017348	1747.884082	1988.003515	2475.087951	2945.652763	3163.072372	1787.982306	2019.921202	2497.217293	2959.470988	3171.786125	#N/A	#N/A	#N/A	#N/A	#N/A
1887.717483	2071.337086	2490.855953	2953.766991	3182.350359	1885.8751	2080.459772	2514.739275	2987.967831	3219.703802	1871.976085	2076.949171	2528.292877	3007.873843	3241.799831	1846.390494	2063.6318	2531.78888	3014.554226	3249.311302	1814.130772	2044.114284	2524.406274	3010.880915	3242.785734	1781.053669	2021.243165	2511.630815	2996.991586	3228.100765	1759.082176	2005.57876	2500.279301	2984.679018	3211.825831	1755.391465	2001.828811	2498.101854	2979.914998	3203.626369	1773.612654	2015.268514	2506.867551	2983.709075	3204.670303	1813.241996	2046.785177	2528.708055	2997.356216	3213.27304	#N/A	#N/A	#N/A	#N/A	#N/A
1911.913137	2097.748732	2522.684197	2992.077688	3224.036301	1910.096551	2106.760531	2546.211858	3025.793311	3260.877599	1896.405669	2103.285327	2559.587676	3045.401448	3282.675767	1871.15912	2090.139631	2563.064765	3051.971471	3290.097049	1839.323119	2070.90061	2555.778313	3048.380626	3283.657446	1806.649379	2048.322735	2543.176752	3034.651701	3269.192725	1784.952395	2032.881019	2531.970877	3022.516831	3253.120099	1781.306361	2029.173807	2529.832957	3017.835392	3245.037091	1799.306399	2042.438018	2538.471758	3021.562587	3246.069225	1838.435999	2073.529855	2560.007542	3035.028862	3254.554584	#N/A	#N/A	#N/A	#N/A	#N/A
1935.999613	2124.037124	2554.36591	3030.228983	3265.561027	1934.210175	2132.931822	2577.520082	3063.434146	3301.862803	1920.738064	2129.494219	2590.708734	3082.729597	3323.347329	1895.849399	2116.529556	2594.165159	3089.184082	3330.673377	1864.461494	2097.583647	2586.979933	3085.679082	3324.32431	1832.216102	2075.315625	2574.561299	3072.119683	3310.090854	1810.810889	2060.108764	2563.508939	3060.171546	3294.231811	1807.212428	2056.446944	2561.412354	3055.57655	3286.271348	1824.977102	2069.525592	2569.9178	3059.233759	3287.29098	1863.576441	2100.169137	2591.133248	3072.50955	3295.652699	1927.13	2153.03	2629.13	3096.23	3312.23
1959.990492	2150.217184	2585.91903	3068.242062	3306.947307	1958.229534	2158.988671	2608.68216	3100.911907	3342.682591	1944.986676	2155.590833	2621.674425	3119.880098	3363.837945	1920.474474	2142.816415	2625.108471	3126.213948	3371.063801	1889.558738	2124.178018	2618.029455	3122.798121	3364.809764	1857.766401	2102.236228	2605.802627	3109.417214	3350.81842	1836.670058	2087.276232	2594.91153	3097.664702	3335.184055	1833.122043	2083.662427	2592.85806	3093.159953	3327.352135	1850.63727	2096.545569	2601.223797	3096.744117	3328.358577	1888.676154	2126.717675	2622.103551	3109.81996	3336.590488	1951.28199	2178.74032	2659.491062	3133.168582	3352.926809
1983.899456	2176.303943	2617.361622	3106.138284	3348.21811	1982.168292	2184.946204	2639.716423	3138.248313	3383.360315	1969.165025	2181.590262	2652.503228	3156.874892	3404.171203	1945.047621	2169.015159	2655.913217	3163.083088	3411.291986	1914.627844	2150.698478	2648.945314	3159.759715	3405.137403	1883.313017	2129.099076	2636.919029	3146.566117	3391.398857	1862.542495	2114.397816	2626.196818	3135.017986	3376.000098	1859.047775	2110.834613	2624.188221	3130.607235	3368.302633	1876.299593	2123.512427	2632.407988	3134.115338	3369.295207	1913.748124	2153.19025	2652.936933	3146.981919	3377.39123	1975.35909	2204.336315	2689.688617	3169.941935	3393.475014
2007.740293	2202.312544	2648.711889	3143.939183	3389.396604	2006.040218	2210.819653	2670.641316	3175.465232	3423.919497	1993.286748	2207.507701	2683.213731	3193.736053	3444.370847	1969.582246	2195.140855	2686.598016	3199.813649	3451.381753	1939.681962	2177.159906	2679.746051	3196.58597	3445.330981	1908.868868	2155.91885	2667.928913	3183.588357	3431.855771	1888.440985	2141.488063	2657.383099	3172.253238	3416.703386	1885.002386	2137.978022	2655.421109	3167.940188	3409.146211	1901.976941	2150.440794	2663.488735	3171.369252	3410.124248	1938.805495	2179.601768	2683.651983	3184.017392	3418.078386	1999.375	2229.833434	2719.741685	3206.572282	3433.89824
2031.526895	2228.258237	2679.988167	3181.666469	3430.506161	2029.859186	2236.624353	2701.475399	3212.584687	3464.383838	2017.365595	2233.358455	2713.824625	3230.485794	3484.460779	1994.091893	2221.208684	2717.181594	3236.42791	3491.357076	1964.734397	2203.577314	2710.450318	3233.299127	3485.414411	1934.44705	2182.710375	2698.850809	3220.506043	3472.212935	1914.378504	2168.561679	2688.488797	3209.39245	3457.317546	1910.998836	2165.107331	2686.575126	3205.180757	3449.906422	1927.682368	2177.34545	2694.484523	3208.527843	3450.869262	1963.861564	2205.967263	2714.267398	3220.948491	3458.675596	2023.343526	2255.247216	2749.669364	3243.081971	3474.220281
2055.273257	2254.156385	2711.208925	3219.342028	3471.570354	2053.639177	2262.375742	2732.237353	3249.628847	3504.777212	2041.415435	2259.157932	2744.354711	3267.146463	3524.465063	2018.590237	2247.233946	2747.682779	3272.948279	3531.242081	1989.798611	2229.965844	2741.07688	3269.921558	3525.411763	1960.06084	2209.488622	2729.703367	3257.341428	3512.494292	1940.368227	2195.633528	2719.532462	3246.457767	3497.866387	1937.050282	2192.237378	2717.668805	3242.351046	3490.607008	1953.429115	2204.241322	2725.413959	3245.613245	3491.553999	1988.929789	2232.301897	2744.801981	3257.797469	3499.206679	2047.27859	2280.593285	2779.490832	3279.493475	3514.465098
2078.993479	2280.02246	2742.392772	3256.987924	3512.612958	2077.394278	2288.089366	2762.945972	3286.620038	3545.123668	2065.450252	2284.92165	2774.822897	3303.740544	3564.407922	2043.091091	2273.232053	2778.120509	3309.397299	3571.061053	2014.888227	2256.340769	2771.644609	3306.475774	3565.347267	1985.723695	2236.268709	2760.505355	3294.116907	3552.723957	1966.423523	2222.71863	2750.532775	3283.471487	3538.3739	1963.170083	2219.383163	2748.720809	3279.473316	3531.271898	1979.230608	2231.143493	2756.295776	3282.647751	3532.202396	2014.023786	2258.620961	2775.274644	3294.586728	3539.695639	2071.194223	2305.887357	2809.225344	3315.829396	3554.656825
2102.701768	2305.872048	2773.558449	3294.626402	3553.657957	2101.138682	2313.780874	2793.62017	3323.580735	3585.447436	2089.48415	2310.665233	2805.248198	3340.29066	3604.31374	2067.608403	2299.218539	2808.513827	3345.797642	3610.838431	2040.017025	2282.717492	2802.172494	3342.984419	3605.245316	2011.449257	2263.065904	2791.275666	3330.855023	3592.926218	1992.557964	2249.832169	2781.508544	3320.456063	3578.864258	1989.371798	2246.559848	2779.749929	3316.569987	3571.925212	2005.100465	2258.067196	2787.148829	3319.653807	3572.838582	2039.157332	2284.939878	2805.704404	3331.338809	3580.166658	2095.10457	2331.145235	2838.892233	3352.112461	3594.819763
2126.412435	2331.720845	2804.724836	3332.279883	3594.729536	2124.88669	2339.466021	2824.278979	3360.533569	3625.772921	2113.531349	2336.404413	2835.649739	3376.81957	3644.207063	2092.156258	2325.209052	2838.88188	3382.172111	3650.598809	2065.19895	2309.111552	2832.67963	3379.470273	3645.130461	2037.251354	2289.895622	2822.033311	3367.578461	3633.125533	2018.78532	2276.989488	2812.478706	3357.434103	3619.361821	2015.669189	2273.782758	2810.775092	3353.663636	3612.59126	2031.052491	2285.02782	2817.992099	3356.654012	3613.486871	2064.344365	2311.274198	2836.110388	3368.076405	3620.644104	2119.023891	2356.382813	2868.510911	3388.365526	3634.978387
2150.1399	2357.584661	2835.91095	3369.970969	3635.852091	2148.652711	2365.160668	2854.941548	3397.501323	3666.124706	2137.606189	2362.15503	2866.046752	3413.350173	3684.112597	2116.748879	2351.219359	2869.243925	3418.543645	3690.366939	2090.448104	2335.538617	2863.18523	3415.956254	3685.027417	2063.143996	2316.773428	2852.797424	3404.310056	3673.346535	2045.119565	2304.206092	2843.462331	3394.42837	3659.891132	2042.076227	2301.067385	2841.815354	3390.777003	3653.294544	2057.100686	2312.040906	2848.844693	3393.671127	3654.17177	2089.598983	2337.639604	2866.511834	3404.82235	3661.152529	2142.966559	2381.616072	2898.10087	3424.611573	3675.157339
2173.898687	2383.479417	2867.135946	3407.722445	3677.050223	2172.451262	2390.880784	2885.627148	3434.506937	3706.527555	2161.723129	2387.933035	2896.45858	3449.905506	3724.055215	2141.40063	2377.265345	2899.619326	3454.935315	3730.167733	2115.778757	2362.014492	2893.708615	3452.465416	3724.96106	2089.141386	2343.715041	2883.587261	3441.072786	3713.614032	2071.574879	2331.497652	2874.478618	3431.461783	3700.476919	2068.607087	2328.429385	2872.889904	3427.932984	3694.059755	2083.259243	2339.122154	2879.725841	3430.728064	3694.917977	2114.935453	2364.05191	2896.928086	3441.599627	3701.71667	2166.94706	2406.861086	2927.681681	3460.873713	3715.38144
2197.70343	2409.421152	2898.419117	3445.557278	3718.348744	2196.296969	2416.642443	2916.355168	3471.573505	3747.006413	2185.89675	2413.754485	2926.904673	3486.508746	3764.059949	2166.126011	2403.363017	2930.027553	3491.370325	3770.026256	2141.205342	2388.555117	2924.269222	3489.02095	3764.956429	2115.257915	2370.736327	2914.422203	3477.889778	3753.953005	2098.165647	2358.879999	2905.546896	3468.557417	3741.144099	2095.276157	2355.884583	2904.018066	3465.15464	3734.911782	2109.542549	2366.287419	2910.654902	3467.847897	3735.750384	2140.368202	2390.527063	2927.378598	3478.431368	3742.361448	2190.979997	2432.134018	2957.272992	3497.175187	3755.675678
2221.56887	2435.426013	2929.779898	3483.498615	3759.772675	2220.204568	2442.461828	2947.145116	3508.724277	3787.586405	2210.14175	2439.635551	2957.404593	3523.183208	3804.151998	2190.939667	2429.528499	2960.488186	3527.872014	3809.967737	2166.742456	2415.176564	2954.886601	3525.646187	3805.038727	2141.508163	2397.85331	2945.321751	3514.784306	3794.388611	2124.906464	2386.369133	2936.686628	3505.738508	3781.917775	2122.098034	2383.448969	2935.219296	3502.465192	3775.875704	2135.965191	2393.552713	2941.651362	3505.053857	3776.694074	2165.911826	2417.081142	2957.882935	3515.34085	3783.111974	2215.080088	2457.45112	2986.894534	3533.539364	3796.06522
2245.509855	2461.510267	2961.23786	3521.569791	3801.34725	2244.188902	2468.355229	2978.016621	3545.98266	3828.292837	2234.472952	2465.592509	2987.978011	3559.95235	3844.356726	2215.856379	2455.778036	2991.020912	3564.463856	3850.01756	2192.404867	2441.895045	2985.580415	3562.364595	3845.233323	2167.906905	2425.082163	2976.305533	3551.779794	3834.946185	2151.812135	2413.981219	2967.917408	3543.028447	3822.823239	2149.08753	2411.138707	2966.513185	3539.888022	3816.976797	2162.541953	2420.934209	2972.734831	3542.369334	3817.774326	2191.581087	2443.73036	2988.460771	3552.351501	3823.993543	2239.262168	2482.828737	3016.566115	3569.989743	3836.575405
2269.541343	2487.690294	2992.812717	3559.794323	3843.097912	2268.264929	2494.339046	3008.989435	3583.372217	3869.151199	2258.9053	2491.641751	3018.644709	3596.839769	3884.69966	2240.891075	2482.127995	3021.645528	3601.169459	3890.201273	2218.207506	2468.726906	3016.370444	3599.19978	3885.565749	2194.469111	2452.439216	3007.393298	3588.899812	3875.651236	2178.897677	2441.732591	2999.258964	3580.450784	3863.885973	2176.259673	2438.970126	2997.919459	3577.446678	3858.240533	2189.28782	2448.448238	3003.92505	3579.817877	3859.016613	2217.390917	2470.491067	3019.131892	3589.486897	3865.031641	2263.541188	2508.283305	3046.307625	3606.549954	3877.231747
2293.678403	2513.982588	3024.524324	3598.195916	3885.050322	2292.447715	2520.429786	3040.083428	3620.916672	3910.187165	2283.453859	2517.799777	3049.424582	3633.869206	3925.206496	2266.058824	2508.594862	3052.38194	3638.012567	3930.544582	2244.165478	2495.688631	3047.27658	3636.17549	3926.061703	2221.209945	2479.940954	3038.604923	3626.168083	3916.529455	2206.178323	2469.63975	3030.731156	3618.02923	3905.131648	2203.629706	2466.959732	3029.457978	3615.16487	3899.692582	2216.217981	2476.111291	3035.241888	3617.423197	3900.446605	2243.356416	2497.379744	3049.916194	3626.770765	3906.251942	2287.932217	2533.831351	3076.139033	3643.243755	3918.059939
2317.936211	2540.403761	3056.392678	3636.79846	3927.230353	2316.752437	2546.644066	3071.318596	3658.639904	3951.426592	2308.13382	2544.0832	3080.337632	3671.064541	3965.903095	2291.37484	2535.195247	3083.250163	3675.017061	3971.073355	2270.294057	2522.796844	3078.318831	3673.315612	3966.74705	2248.14477	2507.604019	3069.960409	3663.608477	3957.606708	2233.669523	2497.719368	3062.353979	3655.787655	3946.586128	2231.213094	2495.124199	3061.148742	3653.066474	3941.358808	2243.347827	2503.940024	3066.705341	3655.209163	3942.090169	2269.492857	2524.413012	3080.833685	3664.22698	3947.680311	2312.450442	2559.489494	3106.080387	3680.095038	3959.08585
2342.330056	2566.970543	3088.437918	3675.626033	3969.664094	2341.194386	2572.998612	3102.715053	3696.565955	3992.895523	2332.960495	2570.508744	3111.403978	3708.449798	4006.815487	2316.854479	2561.945884	3114.270322	3712.206959	4011.813622	2296.608687	2550.068306	3109.517321	3710.644173	4007.647821	2275.28915	2535.44521	3101.479883	3701.245017	3998.909044	2261.386941	2525.988287	3094.147563	3693.750091	3988.275466	2259.025525	2523.480378	3093.011883	3691.17553	3983.265278	2270.692956	2531.951252	3098.335537	3693.199811	3983.973371	2295.815684	2551.607625	3111.904484	3701.879571	3989.342804	2337.111168	2585.274445	3136.151819	3717.127824	4000.335524
2366.875337	2593.699778	3120.680327	3714.702902	4012.377852	2365.788964	2599.510263	3134.293038	3734.719024	4034.620188	2357.949323	2597.093247	3142.643846	3746.049145	4047.96987	2342.513247	2588.863626	3145.462653	3749.606414	4052.791577	2323.124989	2577.519919	3140.892292	3748.185342	4048.790217	2302.658846	2563.481483	3133.183598	3739.101875	4040.462689	2289.346468	2554.463522	3126.132173	3731.940732	4030.225911	2287.082906	2552.045293	3125.067674	3729.516245	4025.438258	2298.269174	2560.161955	3130.152733	3731.419334	4026.122474	2322.340514	2578.980478	3143.148824	3739.752717	4031.265669	2361.929819	2611.203008	3166.373539	3754.366268	4041.835189
2391.587563	2620.608431	3153.140329	3754.053525	4055.398151	2390.551686	2626.195965	3166.072914	3773.123473	4076.627003	2383.115867	2623.853659	3174.07758	3783.886892	4089.39261	2368.366793	2615.965454	3176.847502	3787.239718	4094.033575	2349.858754	2605.168724	3172.464099	3785.963429	4090.200606	2330.269825	2591.729956	3165.091934	3777.203379	4082.294053	2317.564212	2583.162261	3158.328209	3770.383932	4072.463905	2315.401376	2580.836147	3157.336523	3768.112992	4067.904213	2326.092497	2588.589279	3162.177315	3769.892092	4068.563943	2349.08314	2606.5486	3174.587049	3777.870748	4073.475346	2386.921942	2637.292079	3196.765838	3791.834656	4083.611247
2416.482357	2647.713581	3185.838497	3793.702547	4098.751735	2415.498181	2653.072778	3198.075167	3811.803823	4118.942571	2408.475816	2650.807045	3205.725632	3821.987495	4131.110242	2394.430915	2643.268471	3208.445328	3825.131302	4135.566136	2376.825951	2633.031906	3204.253215	3824.002888	4131.905524	2358.138257	2620.207905	3197.225398	3815.574004	4124.429726	2346.056509	2612.101866	3190.756208	3809.104209	4115.016084	2343.997296	2609.870317	3189.838979	3806.990313	4110.689811	2354.179151	2617.250535	3194.429802	3808.642606	4111.324443	2376.05953	2634.329162	3206.239615	3816.25815	4115.998471	2412.103199	2663.558647	3227.34909	3829.557409	4125.690284
2441.575454	2675.03243	3218.795545	3833.674807	4142.465569	2440.644192	2680.157872	3230.320407	3850.78476	4161.593685	2434.044986	2677.970584	3237.608571	3860.375553	4173.149475	2420.721561	2670.789904	3240.276698	3863.305735	4177.415945	2404.042727	2661.126788	3236.280233	3862.328313	4173.931679	2386.28052	2648.932768	3229.604627	3854.238384	4166.896481	2374.839921	2641.299875	3223.436844	3848.126247	4157.909281	2372.887261	2639.16536	3222.595729	3846.172915	4153.821925	2382.545576	2646.1632	3226.930843	3847.695565	4154.430842	2403.285831	2662.339473	3238.127095	3854.93956	4158.861872	2437.489377	2690.019797	3258.143749	3867.559077	4168.099065
2466.882701	2702.582298	3252.032335	3873.995336	4186.566838	2466.005578	2707.468529	3262.829369	3890.091129	4204.607326	2459.839319	2705.361566	3269.747079	3899.075811	4215.537185	2447.254825	2698.547109	3272.362295	3901.787724	4219.609852	2431.525405	2689.470838	3268.565861	3900.964443	4216.305949	2414.713197	2677.922146	3262.250383	3893.221302	4209.721276	2403.931236	2670.774002	3256.390929	3887.474892	4201.170524	2402.088097	2668.739013	3255.627599	3885.685678	4197.327627	2411.208427	2675.34492	3259.701221	3887.07582	4197.91021	2430.778367	2690.596983	3270.270173	3893.939771	4202.092575	2463.096383	2716.692705	3289.170352	3905.864348	4210.864538
2492.42006	2730.380623	3285.569874	3914.689359	4231.082952	2491.598309	2735.022145	3295.622912	3929.747942	4248.010668	2485.874886	2732.997402	3302.16195	3938.11316	4258.300421	2474.046954	2726.557566	3304.722912	3940.602117	4262.174871	2459.290488	2718.081669	3301.130925	3939.93616	4259.055382	2443.453083	2707.193802	3295.183558	3932.547698	4252.931251	2433.347476	2700.542139	3289.639411	3927.175154	4244.82704	2431.616864	2698.609195	3288.955556	3925.55365	4241.234198	2440.184576	2704.813508	3292.76185	3926.80839	4241.789821	2458.553641	2719.119283	3302.689648	3933.283727	4245.717801	2488.940247	2743.594642	3320.449515	3944.498043	4254.013833
2518.203606	2758.444965	3319.429318	3955.782294	4276.041543	2517.438475	2762.836227	3328.722024	3969.780374	4291.831074	2512.167886	2760.895614	3334.874096	3977.512637	4301.466407	2501.114344	2754.83888	3337.379454	3979.773902	4305.138185	2487.354659	2746.977035	3333.996373	3979.268491	4302.2072	2472.517182	2736.765663	3328.425176	3972.242665	4296.553733	2463.105894	2730.622358	3323.203379	3967.252212	4288.906254	2461.490858	2728.794004	3322.600708	3965.802049	4285.569122	2469.491113	2734.58695	3326.133777	3966.918459	4286.097155	2486.62834	2747.924103	3335.406433	3972.996532	4289.764969	2515.037121	2770.742974	3352.001938	3983.485116	4297.574261
2544.24953	2786.793005	3353.631969	3997.299754	4321.470468	2543.542281	2790.928397	3362.147816	4010.213762	4336.096098	2538.734648	2789.073842	3367.904541	4017.299427	4345.062535	2528.473544	2783.408786	3370.35294	4019.328206	4348.527144	2515.734785	2776.174838	3367.183267	4018.986607	4345.788795	2501.922714	2766.655822	3361.996387	4012.331455	4340.616235	2493.223979	2761.032908	3357.10406	4007.731409	4333.435789	2491.727615	2759.311724	3356.584305	4006.456263	4330.360093	2499.145349	2764.6834	3359.838185	4007.431381	4330.859896	2515.01933	2777.02932	3368.441557	4013.103442	4334.261696	2541.403281	2798.155161	3383.848403	4022.850659	4341.573322
2570.573644	2815.442007	3388.198632	4039.266778	4367.396979	2569.925556	2819.315854	3395.920878	4051.07284	4380.832655	2565.591139	2817.549304	3401.273778	4057.498086	4389.115538	2556.140768	2812.284609	3403.663854	4059.289526	4392.368425	2544.447429	2805.692587	3400.712145	4059.115052	4389.826896	2531.686628	2796.882004	3395.917826	4052.838699	4385.145617	2523.718976	2791.791691	3391.362175	4048.637484	4378.442636	2522.34443	2790.18029	3390.927091	4047.541084	4375.634173	2529.164336	2795.120652	3393.89574	4048.371902	4376.105101	2543.743179	2806.452414	3401.815515	4053.629099	4379.234964	2568.054636	2825.848219	3416.009123	4062.619123	4386.03786
2597.180574	2844.396978	3423.135358	4081.690836	4413.82934	2596.592947	2848.003511	3430.046999	4092.364693	4426.048583	2592.742172	2846.326947	3434.987463	4098.115484	4433.633024	2584.121136	2841.471434	3437.317832	4099.664654	4436.669566	2573.498135	2835.535597	3434.588712	4099.660668	4434.329106	2561.814937	2827.449792	3430.195327	4093.771369	4430.149647	2554.597243	2822.904498	3425.983671	4089.977541	4423.934728	2553.347723	2821.405541	3425.635041	4089.063673	4421.399392	2559.554203	2825.904372	3428.312325	4089.747139	4421.840788	2572.805436	2836.198667	3435.533964	4094.580477	4424.692694	2594.995926	2853.826839	3448.489385	4102.797236	4430.975618
2624.063653	2873.650554	3458.433318	4124.561651	4460.756627	2623.537809	2876.9839	3464.517051	4134.078609	4471.73248	2620.181287	2875.39934	3469.036314	4139.140665	4478.603319	2612.408534	2870.961992	3471.305559	4140.442551	4481.418808	2602.881266	2865.696855	3468.803737	4140.61247	4479.283742	2592.30253	2858.352481	3464.819808	4135.118633	4475.616827	2585.854053	2854.364855	3460.9596	4131.740897	4469.900762	2584.732831	2852.981053	3460.699237	4131.013413	4467.644553	2590.30997	2857.027941	3463.07891	4131.546422	4468.055749	2602.200474	2866.261028	3469.58762	4135.946747	4470.623567	2622.220605	2882.083299	3481.279473	4143.373886	4476.375074
2651.215664	2903.194774	3494.082958	4167.868078	4508.166973	2650.752948	2906.248956	3499.321191	4176.203022	4517.872006	2647.901473	2904.758455	3503.410339	4180.561825	4524.013825	2640.996288	2900.748412	3505.617014	4181.611335	4526.60347	2632.590617	2896.168742	3503.347279	4181.958625	4524.678198	2623.143717	2889.582752	3499.781472	4176.868805	4521.534729	2617.484094	2886.16567	3496.280293	4173.916015	4516.328503	2616.494508	2884.899787	3496.110039	4173.378828	4514.357522	2621.426074	2888.48413	3498.185751	4173.758226	4514.737836	2631.922096	2896.631841	3503.96649	4177.716224	4517.015332	2649.721578	2910.60929	3514.368978	4184.337111	4522.223774
2678.629334	2933.021617	3530.074652	4211.598875	4556.048398	2678.231114	2935.790556	3534.449514	4218.72628	4564.454729	2675.895652	2934.396205	3538.099488	4222.367084	4569.851856	2669.877651	2930.822759	3540.242118	4223.159048	4572.210784	2662.619894	2926.943566	3538.209335	4223.687223	4570.499778	2654.332711	2921.133206	3535.070455	4219.010121	4567.89083	2649.48195	2918.299764	3531.936013	4216.491272	4563.205612	2648.627403	2917.154613	3531.857737	4216.148354	4561.526061	2652.896854	2920.265623	3533.623038	4216.370939	4561.874801	2661.964019	2927.303379	3538.660522	4219.877144	4563.855637	2677.491689	2939.396452	3547.747447	4225.674884	4568.50917
2706.29733	2963.122998	3566.398696	4255.742699	4604.388809	2705.964994	2965.600519	3569.892048	4261.636646	4611.468114	2704.156683	2964.304445	3573.09365	4264.544486	4616.104633	2699.0458	2961.177035	3575.170729	4265.07366	4618.227896	2692.962718	2958.013563	3573.379839	4265.786279	4616.735698	2685.863628	2952.996361	3570.676828	4261.530736	4614.672513	2681.8421	2950.75987	3567.91695	4259.454958	4610.519651	2681.126057	2949.738314	3567.932547	4259.31034	4609.137828	2684.716547	2952.36502	3569.380888	4259.372863	4609.454289	2692.319871	2958.267844	3573.659602	4262.417663	4611.132026	2705.523718	2968.436378	3581.404383	4267.375102	4615.218621
2734.212261	2993.49077	3603.045312	4300.288111	4653.175999	2733.947218	2995.670604	3605.638756	4304.922299	4658.89953	2732.677357	2994.474968	3608.382653	4307.081998	4662.759292	2728.493837	2991.803175	3610.392648	4307.343065	4664.641865	2723.612623	2989.370895	3608.848664	4308.243733	4663.373082	2717.730483	2985.164655	3606.59059	4304.418724	4661.867062	2714.558916	2983.538632	3604.21322	4302.795279	4658.258076	2713.984904	2982.643582	3604.324613	4302.853046	4657.180374	2716.87929	2984.77484	3605.449351	4302.752214	4657.463841	2722.983195	2989.517365	3608.953559	4305.325854	4658.831944	2733.810381	2997.720608	3615.329244	4309.425595	4662.339389
2762.366676	3024.116725	3640.004645	4345.223568	4702.397648	2762.170355	3025.992511	3641.679533	4348.571332	4706.736246	2761.450401	3024.899508	3643.956266	4349.967508	4709.802875	2758.214788	3022.693049	3645.897618	4349.955086	4711.439662	2754.563054	3021.007651	3644.60562	4351.047449	4710.398967	2749.927194	3017.630442	3642.801677	4347.662076	4709.461668	2747.626663	3016.628607	3640.81487	4346.500352	4706.408246	2747.198271	3015.86302	3641.024005	4346.764643	4705.641146	2749.379115	3017.487513	3641.818405	4346.497121	4705.890892	2753.947444	3021.043999	3644.532157	4348.589711	4706.942733	2762.344334	3027.240635	3649.511445	4351.814119	4709.858641
2790.753066	3054.99259	3677.266762	4390.537431	4752.041319	2790.626916	3056.557883	3678.00421	4392.571751	4754.965432	2790.468477	3055.569737	3679.804195	4393.18883	4757.222336	2788.201603	3053.838461	3681.675319	4392.89747	4758.608171	2785.807366	3052.915846	3680.640454	4394.185213	4757.800297	2782.447575	3050.385995	3679.299953	4391.248705	4757.443423	2781.039497	3050.022263	3677.711873	4390.55821	4754.957412	2780.760372	3049.389139	3678.02072	4391.033214	4754.507481	2782.209954	3050.495387	3678.477961	4390.595626	4754.72277	2785.205983	3052.83973	3680.385103	4392.197145	4755.451634	2791.118166	3056.987899	3683.940357	4394.52836	4757.76345
2819.363862	3086.110032	3714.821657	4436.217958	4802.094461	2819.309348	3087.358301	3714.60255	4436.911476	4803.574158	2819.724178	3086.477267	3715.916088	4436.733698	4805.004536	2818.447156	3085.231149	3717.715373	4436.15789	4806.13419	2817.338827	3085.08742	3716.94285	4437.644737	4805.563928	2815.28534	3083.423501	3716.075216	4435.166439	4805.799325	2814.791465	3083.711977	3714.894129	4434.956798	4803.892724	2814.665312	3083.214361	3715.30468	4435.646752	4803.766614	2815.365631	3083.790722	3715.417859	4435.035683	4803.946699	2816.752087	3084.896469	3716.502041	4436.135986	4804.345784	2820.124406	3086.953793	3718.605305	4437.555933	4806.040791
2848.191435	3117.460652	3752.659242	4482.253307	4852.544407	2848.210041	3118.385288	3751.464251	4481.578343	4852.549393	2849.210032	3117.613651	3752.28153	4480.58977	4853.136247	2848.944242	3116.862785	3754.007341	4479.723945	4854.004425	2849.150615	3117.514239	3753.50243	4481.413656	4853.676625	2848.434102	3116.735067	3753.117196	4479.403027	4854.51627	2848.876504	3117.690034	3752.351464	4479.683972	4853.201229	2848.907085	3117.331014	3752.865734	4480.593163	4853.405669	2848.839867	3117.365692	3752.627868	4479.80516	4853.549794	2848.578942	3117.206054	3752.872556	4480.39398	4853.612215	2849.355517	3117.129657	3753.495573	4480.88438	4854.677544
